Sensor: mmc5603x Magnetometer Non-wakeup
Vendor: memsic
TimestampMag [ns]; MagX [uT]; MagY [uT]; MagZ [uT]
552020675685985;5.1606;16.1894;-30.9636;
552020697037027;5.7584;16.4944;-30.2194;
552020717037027;5.9292;16.5188;-29.9266;
552020737037027;5.9902;16.5554;-29.6704;
552020757037027;6.0634;16.5676;-29.5118;
552020777037027;6.1244;16.6408;-29.4142;
552020797037027;6.1122;16.6896;-29.3166;
552020817037027;6.0878;16.7018;-29.2556;
552020837037027;6.0878;16.7872;-28.8652;
552020857037027;5.9292;16.7872;-28.6212;
552020877037027;5.7218;16.7994;-28.3650;
552020897037027;5.6608;16.7506;-28.2796;
552020917037027;5.5876;16.7628;-28.2674;
552020937037027;5.4412;16.7262;-28.1210;
552020957037027;5.3558;16.7140;-28.0356;
552020977037027;5.3192;16.7384;-27.8770;
552020997037027;5.4168;16.7506;-27.9136;
552021017037027;5.4900;16.7628;-27.9990;
552021037037027;5.6486;16.7628;-28.1576;
552021057037027;5.6486;16.8604;-28.1210;
552021077037027;5.6242;16.8970;-27.9746;
552021097037027;5.6852;16.9092;-28.0234;
552021117037027;5.8316;16.9214;-28.1088;
552021137037027;5.8438;16.9214;-28.1576;
552021157037027;5.8926;16.9458;-28.1942;
552021177037027;6.0390;16.9458;-28.3040;
552021197037027;6.1122;16.9824;-28.2918;
552021217037027;6.1976;16.9824;-28.3772;
552021237037027;6.3074;17.0068;-28.4626;
552021257037027;6.4416;17.0556;-28.5480;
552021277037027;6.4782;17.0678;-28.5968;
552021297037027;6.5880;17.0922;-28.6456;
552021317037027;6.6124;17.0434;-28.6090;
552021337037027;6.4660;17.0434;-28.4504;
552021357037027;6.4904;17.0678;-28.4626;
552021377037027;6.5270;17.0800;-28.4504;
552021397037027;6.5270;17.0800;-28.4870;
552021417037027;6.3806;17.0434;-28.3528;
552021437037027;6.2830;17.0068;-28.1942;
552021457037027;6.2220;17.0068;-28.1332;
552021477037027;6.1488;17.0434;-28.0844;
552021497037027;6.2830;17.0556;-28.2064;
552021517037027;6.1976;17.0068;-28.1454;
552021537037027;6.1488;17.0068;-28.1698;
552021557037027;6.1122;16.9702;-28.1088;
552021577037027;6.1976;17.0068;-28.1698;
552021597037027;6.1854;17.0190;-28.2674;
552021617037027;6.2342;17.0312;-28.4016;
552021637037027;6.4416;17.0556;-28.6212;
552021657037027;6.5026;17.0678;-28.6334;
552021677037027;6.5514;17.1044;-28.6456;
552021697037027;6.5270;17.0922;-28.6334;
552021717037027;6.5392;17.1044;-28.7676;
552021737037027;6.4050;17.0922;-28.6090;
552021757037027;6.3562;17.0922;-28.4748;
552021777037027;6.1488;17.0556;-28.1820;
552021797037027;5.7950;16.9580;-27.8160;
552021817037027;5.5510;16.9336;-27.5110;
552021837037027;5.3924;16.9336;-27.3890;
552021857037027;5.2826;16.9458;-27.1816;
552021877037027;5.1728;16.9458;-26.9132;
552021897037027;5.2216;16.9336;-26.9376;
552021917037027;5.2704;16.9580;-26.9376;
552021937037027;5.4412;16.9946;-27.1450;
552021957037027;5.6242;17.0434;-27.3646;
552021977037027;5.6974;17.0312;-27.5232;
552021997037027;5.8438;16.9824;-27.6086;
552022017037027;5.9048;16.8848;-27.6696;
552022037037027;5.9780;16.8848;-27.7794;
552022057037027;5.9414;16.8604;-27.8282;
552022077037027;5.8560;16.8482;-27.7428;
552022097037027;5.7096;16.8360;-27.5842;
552022117037027;5.7218;16.8726;-27.6330;
552022137037027;5.8804;16.9092;-27.8648;
552022157037027;6.0024;16.9946;-27.9868;
552022177037027;6.0390;17.0800;-28.0966;
552022197037027;6.0024;17.0678;-28.0966;
552022217037027;6.0512;17.0922;-28.1942;
552022237037027;6.0390;17.1166;-28.2308;
552022257037027;6.0146;17.1166;-28.1210;
552022277037027;5.9658;17.0922;-27.9502;
552022297037027;5.7584;17.0800;-27.7184;
552022317037027;5.4778;17.0068;-27.5354;
552022337037027;5.3680;16.9946;-27.3768;
552022357037027;5.3070;16.9824;-27.2060;
552022377037027;5.2582;16.9824;-27.0718;
552022397037027;5.1362;16.9458;-26.8766;
552022417037027;5.0630;16.8970;-26.8766;
552022437037027;4.8312;16.8604;-26.6814;
552022457037027;4.8190;16.8726;-26.5594;
552022477037027;4.7946;16.8726;-26.4496;
552022497037027;4.7092;16.8360;-26.3398;
552022517037027;4.6360;16.8848;-26.2910;
552022537037027;4.6238;16.8726;-26.3154;
552022557037027;4.7336;16.8482;-26.5716;
552022577037027;4.8800;16.8848;-26.7912;
552022597037027;5.0630;16.9092;-27.0352;
552022617037027;5.0874;16.9092;-27.1572;
552022637037027;5.1728;16.9214;-27.2792;
552022657037027;5.3314;16.9702;-27.4622;
552022677037027;5.4534;16.9580;-27.6086;
552022697037027;5.5266;16.9458;-27.6452;
552022717037027;5.5876;16.9824;-27.6086;
552022737037027;5.5510;16.9580;-27.5354;
552022757037027;5.6120;16.9580;-27.5598;
552022777037027;5.5754;16.9336;-27.4988;
552022797037027;5.5998;16.9458;-27.5476;
552022817037027;5.6608;16.9214;-27.6574;
552022837037027;5.5266;16.8970;-27.5232;
552022857037027;5.4046;16.9336;-27.4012;
552022877037027;5.4778;16.9214;-27.5110;
552022897037027;5.6120;16.9824;-27.5964;
552022917037027;5.5388;16.9702;-27.5964;
552022937037027;5.5388;16.9336;-27.7550;
552022957037027;5.5266;16.9336;-27.7916;
552022977037027;5.5022;16.8848;-27.6696;
552022997037027;5.6852;16.8482;-27.9258;
552023017037027;5.7950;16.7872;-28.0600;
552023037037027;5.7340;16.7628;-28.0600;
552023057037027;5.6242;16.7384;-27.9990;
552023077037027;5.5754;16.7384;-27.8282;
552023097037027;5.6852;16.7872;-27.7550;
552023117037027;5.7706;16.8116;-27.8160;
552023137037027;5.8316;16.8848;-27.9136;
552023157037027;5.9170;16.9336;-27.9136;
552023177037027;6.1000;16.9336;-28.1454;
552023197037027;6.2342;16.9458;-28.1942;
552023217037027;6.4416;16.9580;-28.4138;
552023237037027;6.6734;17.0068;-28.6944;
552023257037027;6.7344;17.0068;-28.7920;
552023277037027;6.7710;17.0068;-28.6944;
552023297037027;6.8076;16.9824;-28.7188;
552023317037027;6.7344;16.9946;-28.6456;
552023337037027;6.6612;17.0312;-28.5480;
552023357037027;6.6490;17.0678;-28.5480;
552023377037027;6.5270;17.0068;-28.3772;
552023397037027;6.4538;16.9824;-28.3040;
552023417037027;6.5392;16.9946;-28.3528;
552023437037027;6.5270;17.0068;-28.4504;
552023457037027;6.5026;16.9946;-28.4260;
552023477037027;6.4538;17.0068;-28.3650;
552023497037027;6.3196;16.9824;-28.1088;
552023517037027;6.1854;16.9824;-27.9136;
552023537037027;6.1122;17.0678;-27.8404;
552023557037027;5.9902;17.0678;-27.7306;
552023577037027;5.8072;17.0556;-27.5476;
552023597037027;5.6364;17.0312;-27.2914;
552023617037027;5.4412;17.0312;-27.0840;
552023637037027;5.4290;16.9824;-27.0474;
552023657037027;5.4290;16.9946;-27.0840;
552023677037027;5.3558;16.9824;-27.0962;
552023697037027;5.2704;16.9580;-27.0108;
552023717037027;5.1972;16.9702;-26.9986;
552023737037027;5.1362;16.9702;-26.9498;
552023757037027;5.1240;16.9824;-26.8888;
552023777037027;5.0508;16.9824;-26.8400;
552023797037027;4.9898;17.0068;-26.8278;
552023817037027;4.9532;16.9580;-26.7546;
552023837037027;5.0508;16.8970;-26.7302;
552023857037027;5.1606;16.8848;-26.7790;
552023877037027;5.3314;16.8726;-26.7912;
552023897037027;5.4900;16.8482;-26.9498;
552023917037027;5.6364;16.8726;-27.1816;
552023937037027;5.8072;16.8482;-27.3524;
552023957037027;5.7584;16.7994;-27.3890;
